# MarkerIndex 
# TiltAngle (degrees)
# PositionX (px)
# PositionY (px)
# 
  0  -60.000  1354.50   492.29
  0  -58.000  1327.80   495.39
  0  -56.000  1308.70   497.69
  0  -54.000  1276.60   501.19
  0  -52.000  1243.30   506.09
  0  -50.000  1213.90   509.09
  0  -48.000  1178.30   513.69
  0  -46.000  1151.90   515.79
  0  -44.000  1123.10   517.19
  0  -42.000  1090.70   523.59
  0  -40.000  1062.60   527.49
  0  -38.000  1039.60   528.29
  0  -36.000  1015.40   530.29
  0  -34.000   989.70   533.79
  0  -32.000   966.90   537.39
  0  -30.000   947.70   535.59
  0  -28.000   921.60   539.59
  0  -26.000   902.70   540.79
  0  -24.000   880.80   543.09
  0  -22.000   859.70   546.09
  0  -20.000   831.90   549.59
  0  -18.000   823.90   550.49
  0  -16.000   806.80   551.49
  0  -14.000   789.70   552.69
  0  -12.000   774.30   553.19
  0  -10.000   756.20   551.69
  0   -8.000   744.10   554.09
  0   -6.000   726.20   556.79
  0   -4.000   716.70   555.39
  0   -2.000   708.10   556.89
  0    0.000   697.80   555.59
  0    2.000   689.70   552.69
  0    4.000   681.30   550.89
  0    6.000   675.60   554.39
  0    8.000   666.60   551.09
  0   10.000   655.80   551.49
  0   12.000   648.40   556.49
  0   14.000   634.90   558.39
  0   16.000   619.80   565.49
  0   18.000   704.70   554.29
  0   20.000   704.50   554.09
  0   22.000   711.80   555.29
  0   24.000   719.70   553.89
  0   26.000   725.60   552.79
  0   28.000   736.80   551.49
  0   30.000   749.70   549.89
  0   32.000   761.70   550.49
  0   34.000   778.50   547.09
  0   36.000   791.10   546.59
  0   38.000   809.80   545.79
  0   40.000   823.90   544.19
  0   42.000   846.60   542.69
  0   44.000   864.90   540.39
  0   46.000   886.70   536.39
  0   48.000   904.80   536.09
  0   50.000   935.70   532.79
  0   52.000   961.30   531.89
  0   54.000   984.20   529.29
  0   56.000  1003.70   529.09
  1  -60.000  1934.80   675.50
  1  -58.000  1935.10   676.60
  1  -56.000  1942.10   677.10
  1  -54.000  1935.10   678.80
  1  -52.000  1926.30   681.40
  1  -50.000  1921.80   682.60
  1  -48.000  1910.30   685.40
  1  -46.000  1906.50   685.80
  1  -44.000  1899.80   685.40
  1  -42.000  1888.40   689.80
  1  -40.000  1880.50   692.60
  1  -38.000  1875.80   692.30
  1  -36.000  1870.20   693.20
  1  -34.000  1861.60   695.40
  1  -32.000  1854.60   697.70
  1  -30.000  1851.40   694.70
  1  -28.000  1838.80   697.90
  1  -26.000  1832.60   698.30
  1  -24.000  1822.10   699.30
  1  -22.000  1811.30   702.30
  1  -20.000  1792.90   705.10
  1  -18.000  1792.60   705.70
  1  -16.000  1782.70   706.20
  1  -14.000  1771.10   707.20
  1  -12.000  1760.20   707.40
  1  -10.000  1745.50   705.80
  1   -8.000  1735.20   708.10
  1   -6.000  1719.10   711.40
  1   -4.000  1710.30   709.90
  1   -2.000  1700.20   711.90
  1    0.000  1687.10   711.20
  1    2.000  1675.50   708.10
  1    4.000  1660.70   707.50
  1    6.000  1648.50   712.10
  1    8.000  1629.70   710.20
  1   10.000  1606.70   712.30
  1   12.000  1582.90   718.80
  1   14.000  1551.80   722.60
  1   16.000  1514.90   731.80
  1   18.000  1617.80   716.60
  1   20.000  1602.40   717.10
  1   22.000  1594.80   720.10
  1   24.000  1586.90   719.80
  1   26.000  1576.60   719.40
  1   28.000  1569.50   720.30
  1   30.000  1563.40   720.30
  1   32.000  1555.30   721.80
  1   34.000  1549.30   720.70
  1   36.000  1541.20   721.90
  1   38.000  1536.50   722.20
  1   40.000  1526.20   722.40
  1   42.000  1524.90   723.20
  1   44.000  1518.50   722.20
  1   46.000  1513.20   720.40
  1   48.000  1505.10   722.40
  1   50.000  1507.60   721.20
  1   52.000  1505.20   722.20
  1   54.000  1498.40   721.70
  1   56.000  1488.60   723.90
  2  -60.000  2265.80   941.80
  2  -58.000  2279.40   942.10
  2  -56.000  2300.80   941.10
  2  -54.000  2306.50   942.30
  2  -52.000  2311.30   942.80
  2  -50.000  2319.30   943.70
  2  -48.000  2320.40   945.50
  2  -46.000  2328.80   944.80
  2  -44.000  2333.80   943.90
  2  -42.000  2334.20   947.50
  2  -40.000  2337.20   949.30
  2  -38.000  2343.30   948.10
  2  -36.000  2346.70   947.90
  2  -34.000  2347.40   950.20
  2  -32.000  2349.50   951.70
  2  -30.000  2353.70   948.40
  2  -28.000  2349.30   950.60
  2  -26.000  2350.10   950.90
  2  -24.000  2345.90   951.60
  2  -22.000  2341.10   954.20
  2  -20.000  2328.10   956.90
  2  -18.000  2331.80   957.40
  2  -16.000  2325.80   957.10
  2  -14.000  2317.80   957.70
  2  -12.000  2309.10   958.20
  2  -10.000  2296.50   956.50
  2   -8.000  2287.60   958.50
  2   -6.000  2272.20   961.50
  2   -4.000  2262.60   960.30
  2   -2.000  2252.10   962.40
  2    0.000  2237.90   962.40
  2    2.000  2223.60   958.90
  2    4.000  2206.80   958.70
  2    6.000  2190.30   963.50
  2    8.000  2167.90   962.50
  2   10.000  2138.60   965.50
  2   12.000  2108.30   972.90
  2   14.000  2068.30   977.30
  2   16.000  2023.30   987.80
  2   18.000  2126.60   970.40
  2   20.000  2103.60   971.80
  2   22.000  2087.50   975.20
  2   24.000  2070.80   975.30
  2   26.000  2050.70   975.70
  2   28.000  2034.10   977.20
  2   30.000  2017.80   978.30
  2   32.000  1998.60   980.70
  2   34.000  1981.80   980.20
  2   36.000  1960.80   982.50
  2   38.000  1943.80   984.10
  2   40.000  1921.50   985.30
  2   42.000  1906.40   986.80
  2   44.000  1886.20   986.90
  2   46.000  1867.10   986.50
  2   48.000  1843.80   989.80
  2   50.000  1831.30   989.80
  2   52.000  1813.60   991.80
  2   54.000  1790.50   992.80
  2   56.000  1764.40   996.40
  3  -60.000  2872.50  2018.91
  3  -58.000  2910.40  2017.51
  3  -56.000  2953.70  2015.71
  3  -54.000  2980.60  2014.91
  3  -52.000  3007.30  2014.51
  3  -50.000  3037.70  2013.71
  3  -48.000  3060.40  2013.71
  3  -46.000  3090.60  2012.21
  3  -44.000  3116.10  2009.41
  3  -42.000  3135.70  2011.71
  3  -40.000  3157.30  2012.41
  3  -38.000  3181.10  2010.11
  3  -36.000  3201.40  2008.81
  3  -34.000  3217.80  2009.31
  3  -32.000  3234.80  2010.71
  3  -30.000  3252.80  2005.91
  3  -28.000  3262.20  2007.61
  3  -26.000  3275.20  2007.41
  3  -24.000  3282.60  2007.11
  3  -22.000  3287.40  2008.81
  3  -20.000  3283.20  2011.21
  3  -18.000  3295.20  2010.71
  3  -16.000  3295.90  2010.41
  3  -14.000  3293.70  2010.81
  3  -12.000  3289.30  2010.41
  3  -10.000  3281.20  2008.71
  3   -8.000  3274.70  2010.71
  3   -6.000  3259.80  2014.61
  3   -4.000  3251.80  2012.91
  3   -2.000  3239.90  2014.91
  3    0.000  3223.90  2014.61
  3    2.000  3206.90  2012.21
  3    4.000  3185.60  2012.11
  3    6.000  3164.60  2017.51
  3    8.000  3136.30  2016.81
  3   10.000  3102.40  2020.81
  3   12.000  3067.30  2029.11
  3   14.000  3022.80  2035.21
  3   16.000  2973.10  2046.81
  3   18.000  3041.10  2027.91
  3   20.000  3005.90  2029.91
  3   22.000  2975.80  2033.91
  3   24.000  2944.60  2035.61
  3   26.000  2907.80  2037.21
  3   28.000  2874.60  2039.61
  3   30.000  2840.50  2042.11
  3   32.000  2802.70  2045.41
  3   34.000  2766.60  2046.61
  3   36.000  2725.30  2050.51
  3   38.000  2686.80  2053.11
  3   40.000  2642.20  2055.91
  3   42.000  2603.80  2058.81
  3   44.000  2559.70  2060.91
  3   46.000  2515.80  2062.31
  3   48.000  2468.40  2066.91
  3   50.000  2430.10  2068.91
  3   52.000  2385.10  2072.81
  3   54.000  2334.70  2075.41
  3   56.000  2281.30  2081.21
  4  -60.000  1756.70  2652.79
  4  -58.000  1739.70  2654.89
  4  -56.000  1728.30  2657.19
  4  -54.000  1702.40  2660.49
  4  -52.000  1676.40  2663.59
  4  -50.000  1656.90  2665.89
  4  -48.000  1631.40  2669.69
  4  -46.000  1613.80  2671.69
  4  -44.000  1594.90  2671.39
  4  -42.000  1571.70  2676.69
  4  -40.000  1552.90  2680.49
  4  -38.000  1537.80  2680.09
  4  -36.000  1522.20  2681.69
  4  -34.000  1504.20  2684.49
  4  -32.000  1489.10  2687.29
  4  -30.000  1476.60  2685.09
  4  -28.000  1457.20  2688.89
  4  -26.000  1444.40  2690.09
  4  -24.000  1428.20  2691.19
  4  -22.000  1412.20  2694.19
  4  -20.000  1390.10  2697.29
  4  -18.000  1385.20  2698.09
  4  -16.000  1372.40  2698.89
  4  -14.000  1358.90  2699.69
  4  -12.000  1345.50  2700.59
  4  -10.000  1330.20  2698.89
  4   -8.000  1319.60  2700.69
  4   -6.000  1304.20  2704.09
  4   -4.000  1296.20  2701.89
  4   -2.000  1287.50  2704.09
  4    0.000  1276.50  2703.19
  4    2.000  1267.10  2700.09
  4    4.000  1256.80  2699.19
  4    6.000  1248.30  2703.49
  4    8.000  1236.40  2701.49
  4   10.000  1221.80  2703.29
  4   12.000  1209.90  2709.49
  4   14.000  1192.30  2713.29
  4   16.000  1171.30  2722.19
  4   18.000  1251.80  2705.59
  4   20.000  1245.50  2704.89
  4   22.000  1246.70  2707.59
  4   24.000  1248.20  2706.49
  4   26.000  1247.50  2704.79
  4   28.000  1251.60  2704.79
  4   30.000  1256.70  2703.89
  4   32.000  1261.40  2704.79
  4   34.000  1268.30  2702.39
  4   36.000  1272.10  2703.09
  4   38.000  1280.40  2702.29
  4   40.000  1284.50  2701.19
  4   42.000  1297.70  2700.29
  4   44.000  1305.70  2698.19
  4   46.000  1315.20  2695.79
  4   48.000  1322.90  2696.09
  4   50.000  1341.40  2693.89
  4   52.000  1354.60  2693.49
  4   54.000  1363.80  2691.79
  4   56.000  1370.90  2692.69
  5  -60.000  2473.21  2752.09
  5  -58.000  2490.11  2751.79
  5  -56.000  2511.61  2750.79
  5  -54.000  2518.11  2751.29
  5  -52.000  2524.71  2752.69
  5  -50.000  2535.91  2752.59
  5  -48.000  2539.71  2754.29
  5  -46.000  2552.31  2753.59
  5  -44.000  2560.91  2752.09
  5  -42.000  2565.61  2755.49
  5  -40.000  2571.61  2757.29
  5  -38.000  2580.81  2755.39
  5  -36.000  2588.21  2754.89
  5  -34.000  2592.31  2756.59
  5  -32.000  2597.61  2758.09
  5  -30.000  2604.31  2754.49
  5  -28.000  2602.81  2756.69
  5  -26.000  2606.21  2756.79
  5  -24.000  2604.61  2757.09
  5  -22.000  2601.61  2759.49
  5  -20.000  2590.91  2761.69
  5  -18.000  2597.61  2761.69
  5  -16.000  2593.41  2761.79
  5  -14.000  2587.61  2762.29
  5  -12.000  2580.91  2762.09
  5  -10.000  2569.91  2760.39
  5   -8.000  2562.61  2762.09
  5   -6.000  2548.81  2765.29
  5   -4.000  2540.81  2764.09
  5   -2.000  2530.71  2765.89
  5    0.000  2517.31  2765.59
  5    2.000  2503.81  2762.69
  5    4.000  2487.41  2762.19
  5    6.000  2471.71  2766.89
  5    8.000  2450.31  2766.39
  5   10.000  2425.11  2769.49
  5   12.000  2399.91  2777.19
  5   14.000  2367.61  2782.29
  5   16.000  2331.71  2792.69
  5   18.000  2398.91  2773.79
  5   20.000  2374.71  2774.89
  5   22.000  2357.31  2778.59
  5   24.000  2338.81  2779.39
  5   26.000  2316.51  2779.89
  5   28.000  2298.31  2781.39
  5   30.000  2279.91  2782.29
  5   32.000  2258.41  2785.19
  5   34.000  2239.11  2784.49
  5   36.000  2215.11  2787.29
  5   38.000  2195.41  2788.59
  5   40.000  2169.81  2790.29
  5   42.000  2151.61  2792.29
  5   44.000  2127.91  2792.69
  5   46.000  2104.51  2792.39
  5   48.000  2078.11  2796.09
  5   50.000  2061.71  2796.39
  5   52.000  2039.41  2799.09
  5   54.000  2012.21  2799.89
  5   56.000  1981.71  2803.59
  6  -60.000  2065.30  3204.19
  6  -58.000  2061.40  3205.19
  6  -56.000  2062.10  3205.89
  6  -54.000  2047.80  3208.59
  6  -52.000  2034.10  3210.79
  6  -50.000  2027.40  3212.09
  6  -48.000  2013.70  3214.89
  6  -46.000  2009.10  3215.69
  6  -44.000  2000.80  3214.39
  6  -42.000  1989.20  3219.19
  6  -40.000  1981.10  3221.79
  6  -38.000  1975.70  3221.19
  6  -36.000  1969.60  3221.69
  6  -34.000  1960.50  3224.09
  6  -32.000  1953.60  3226.29
  6  -30.000  1949.60  3222.89
  6  -28.000  1937.80  3226.19
  6  -26.000  1932.30  3226.79
  6  -24.000  1922.20  3227.89
  6  -22.000  1912.70  3230.59
  6  -20.000  1894.90  3233.39
  6  -18.000  1895.60  3233.79
  6  -16.000  1886.80  3234.19
  6  -14.000  1876.60  3234.89
  6  -12.000  1866.60  3235.39
  6  -10.000  1853.60  3233.79
  6   -8.000  1845.20  3235.69
  6   -6.000  1830.80  3238.89
  6   -4.000  1822.80  3237.29
  6   -2.000  1814.20  3238.79
  6    0.000  1803.20  3238.49
  6    2.000  1792.90  3235.49
  6    4.000  1780.80  3234.59
  6    6.000  1771.30  3238.89
  6    8.000  1757.80  3236.79
  6   10.000  1741.10  3239.59
  6   12.000  1727.40  3245.59
  6   14.000  1707.90  3249.19
  6   16.000  1687.30  3257.69
  6   18.000  1746.50  3242.69
  6   20.000  1733.40  3242.79
  6   22.000  1727.70  3245.59
  6   24.000  1722.10  3245.09
  6   26.000  1712.80  3244.69
  6   28.000  1708.80  3245.39
  6   30.000  1705.10  3245.19
  6   32.000  1699.40  3247.09
  6   34.000  1696.50  3245.19
  6   36.000  1689.70  3246.49
  6   38.000  1687.50  3246.69
  6   40.000  1680.30  3246.19
  6   42.000  1680.70  3246.49
  6   44.000  1676.80  3245.59
  6   46.000  1674.10  3243.79
  6   48.000  1668.40  3245.49
  6   50.000  1672.80  3244.29
  6   52.000  1672.10  3245.19
  6   54.000  1667.20  3244.49
  6   56.000  1659.20  3246.59
  7  -60.000  1830.40  2658.40
  7  -58.000  1816.60  2660.20
  7  -56.000  1808.50  2662.10
  7  -54.000  1786.10  2664.80
  7  -52.000  1763.70  2668.10
  7  -50.000  1747.70  2669.70
  7  -48.000  1725.60  2673.20
  7  -46.000  1711.50  2674.60
  7  -44.000  1694.80  2674.70
  7  -42.000  1675.10  2679.30
  7  -40.000  1658.70  2682.80
  7  -38.000  1646.10  2683.10
  7  -36.000  1632.60  2683.90
  7  -34.000  1617.20  2686.40
  7  -32.000  1604.10  2689.80
  7  -30.000  1593.80  2687.10
  7  -28.000  1576.10  2690.70
  7  -26.000  1565.10  2691.30
  7  -24.000  1549.90  2692.80
  7  -22.000  1535.50  2695.80
  7  -20.000  1514.70  2698.80
  7  -18.000  1511.40  2699.10
  7  -16.000  1498.80  2700.50
  7  -14.000  1485.70  2700.90
  7  -12.000  1473.70  2701.30
  7  -10.000  1458.50  2699.90
  7   -8.000  1448.80  2701.70
  7   -6.000  1433.10  2706.10
  7   -4.000  1424.70  2703.60
  7   -2.000  1415.70  2705.70
  7    0.000  1404.60  2704.70
  7    2.000  1394.70  2701.40
  7    4.000  1383.70  2700.20
  7    6.000  1374.70  2704.80
  7    8.000  1361.50  2703.20
  7   10.000  1345.80  2705.50
  7   12.000  1331.80  2711.90
  7   14.000  1312.40  2716.30
  7   16.000  1290.40  2725.30
  7   18.000  1371.50  2707.80
  7   20.000  1362.70  2707.60
  7   22.000  1361.90  2710.30
  7   24.000  1361.30  2709.10
  7   26.000  1358.20  2708.40
  7   28.000  1360.60  2708.30
  7   30.000  1363.20  2707.60
  7   32.000  1364.70  2708.80
  7   34.000  1369.10  2705.90
  7   36.000  1369.50  2706.80
  7   38.000  1375.30  2706.40
  7   40.000  1376.60  2705.40
  7   42.000  1385.60  2705.10
  7   44.000  1391.10  2702.80
  7   46.000  1397.80  2700.30
  7   48.000  1401.60  2701.40
  7   50.000  1416.50  2699.60
  7   52.000  1425.50  2699.60
  7   54.000  1431.30  2698.50
  7   56.000  1434.20  2698.60
