# MarkerIndex 
# TiltAngle (degrees)
# PositionX (px)
# PositionY (px)
# 
  0  -60.000  2011.30  1422.81
  0  -58.000  2035.30  1424.71
  0  -56.000  2044.40  1425.21
  0  -54.000  2055.50  1429.21
  0  -52.000  2072.40  1426.11
  0  -50.000  2079.70  1429.91
  0  -48.000  2094.30  1429.31
  0  -46.000  2106.60  1429.31
  0  -44.000  2110.40  1430.81
  0  -42.000  2120.90  1432.21
  0  -40.000  2133.60  1430.71
  0  -38.000  2146.60  1430.81
  0  -36.000  2156.10  1432.81
  0  -34.000  2165.90  1432.81
  0  -32.000  2184.80  1430.71
  0  -30.000  2188.90  1434.91
  0  -28.000  2200.30  1433.71
  0  -26.000  2206.50  1433.61
  0  -24.000  2218.30  1432.21
  0  -22.000  2221.10  1435.31
  0  -20.000  2231.70  1435.41
  0  -18.000  2239.30  1435.81
  0  -16.000  2247.70  1436.11
  0  -14.000  2256.80  1435.71
  0  -12.000  2258.60  1432.31
  0  -10.000  2259.80  1432.71
  0   -8.000  2259.30  1433.91
  0   -6.000  2263.80  1432.41
  0   -4.000  2265.90  1433.21
  0   -2.000  2267.60  1431.21
  0    0.000  2264.30  1431.21
  0    2.000  2263.80  1428.41
  0    4.000  2262.20  1427.81
  0    6.000  2256.10  1425.81
  0    8.000  2251.10  1427.11
  0   10.000  2241.90  1428.51
  0   12.000  2229.30  1432.71
  0   14.000  2209.70  1440.31
  0   16.000  2205.30  1428.21
  0   18.000  2193.70  1429.71
  0   20.000  2181.30  1421.81
  0   22.000  2182.40  1428.31
  0   24.000  2169.60  1429.81
  0   26.000  2162.90  1430.61
  0   28.000  2156.60  1428.81
  0   30.000  2146.90  1429.81
  0   32.000  2140.80  1429.31
  0   34.000  2131.90  1429.91
  0   36.000  2119.40  1432.61
  0   38.000  2114.10  1429.61
  0   40.000  2104.60  1430.51
  0   42.000  2093.50  1431.81
  0   44.000  2082.70  1432.21
  0   46.000  2069.10  1433.71
  0   48.000  2064.20  1430.91
  0   50.000  2054.10  1430.31
  0   52.000  2039.30  1432.81
  0   54.000  2027.90  1437.31
  1  -60.000  1019.11  1907.20
  1  -58.000   999.31  1913.20
  1  -56.000   966.31  1916.20
  1  -54.000   935.61  1922.50
  1  -52.000   912.61  1922.80
  1  -50.000   882.11  1929.50
  1  -48.000   859.81  1931.90
  1  -46.000   835.61  1933.80
  1  -44.000   806.31  1937.40
  1  -42.000   784.61  1941.30
  1  -40.000   767.41  1941.80
  1  -38.000   751.41  1943.80
  1  -36.000   734.91  1947.70
  1  -34.000   719.31  1949.50
  1  -32.000   714.91  1949.40
  1  -30.000   698.11  1954.80
  1  -28.000   689.61  1955.10
  1  -26.000   678.11  1955.60
  1  -24.000   674.21  1955.90
  1  -22.000   663.31  1958.80
  1  -20.000   661.61  1959.80
  1  -18.000   659.31  1960.20
  1  -16.000   659.41  1961.30
  1  -14.000   662.91  1961.10
  1  -12.000   659.81  1958.30
  1  -10.000   659.71  1958.30
  1   -8.000   657.91  1959.40
  1   -6.000   664.91  1957.20
  1   -4.000   670.71  1957.70
  1   -2.000   677.81  1955.40
  1    0.000   683.31  1954.50
  1    2.000   692.91  1950.60
  1    4.000   703.11  1949.60
  1    6.000   711.31  1945.80
  1    8.000   722.91  1945.90
  1   10.000   731.51  1945.20
  1   12.000   738.61  1948.70
  1   14.000   740.21  1955.10
  1   16.000   759.21  1940.40
  1   18.000   772.11  1940.20
  1   20.000   785.51  1931.10
  1   22.000   814.41  1935.20
  1   24.000   831.81  1934.80
  1   26.000   856.21  1933.30
  1   28.000   883.41  1928.20
  1   30.000   908.91  1927.10
  1   32.000   938.31  1924.20
  1   34.000   967.81  1921.70
  1   36.000   995.31  1920.90
  1   38.000  1029.91  1914.70
  1   40.000  1062.81  1912.50
  1   42.000  1095.81  1910.30
  1   44.000  1130.21  1907.50
  1   46.000  1162.41  1905.40
  1   48.000  1204.51  1899.20
  1   50.000  1241.71  1894.40
  1   52.000  1275.41  1893.80
  1   54.000  1313.81  1893.70
  2  -60.000  2886.29  2283.11
  2  -58.000  2941.69  2283.21
  2  -56.000  2981.19  2281.91
  2  -54.000  3020.89  2283.71
  2  -52.000  3066.89  2278.31
  2  -50.000  3101.49  2280.51
  2  -48.000  3142.79  2277.51
  2  -46.000  3179.19  2276.11
  2  -44.000  3207.09  2275.21
  2  -42.000  3240.29  2275.31
  2  -40.000  3274.69  2272.61
  2  -38.000  3308.19  2271.31
  2  -36.000  3336.79  2272.11
  2  -34.000  3363.69  2270.91
  2  -32.000  3399.29  2267.61
  2  -30.000  3418.19  2270.41
  2  -28.000  3443.09  2268.81
  2  -26.000  3461.09  2266.81
  2  -24.000  3483.69  2264.61
  2  -22.000  3495.59  2266.71
  2  -20.000  3513.19  2266.41
  2  -18.000  3526.89  2266.61
  2  -16.000  3540.29  2266.61
  2  -14.000  3552.89  2265.91
  2  -12.000  3556.09  2262.71
  2  -10.000  3558.09  2262.61
  2   -8.000  3555.69  2264.21
  2   -6.000  3557.69  2262.91
  2   -4.000  3555.59  2264.11
  2   -2.000  3551.29  2262.71
  2    0.000  3541.29  2263.21
  2    2.000  3531.89  2261.21
  2    4.000  3520.29  2261.81
  2    6.000  3503.29  2260.81
  2    8.000  3487.19  2263.11
  2   10.000  3464.59  2265.51
  2   12.000  3440.09  2271.41
  2   14.000  3411.09  2280.71
  2   16.000  3369.59  2271.51
  2   18.000  3338.19  2275.11
  2   20.000  3304.19  2268.71
  2   22.000  3282.59  2276.81
  2   24.000  3245.79  2280.81
  2   26.000  3214.59  2283.41
  2   28.000  3181.69  2283.31
  2   30.000  3144.19  2287.11
  2   32.000  3109.39  2288.71
  2   34.000  3071.29  2291.71
  2   36.000  3028.69  2296.41
  2   38.000  2990.79  2295.51
  2   40.000  2948.19  2298.41
  2   42.000  2904.29  2302.21
  2   44.000  2858.69  2305.31
  2   46.000  2810.09  2308.91
  2   48.000  2768.79  2308.91
  2   50.000  2721.39  2311.31
  2   52.000  2668.39  2316.91
  2   54.000  2619.49  2323.81
  3  -60.000  2692.80  2472.40
  3  -58.000  2738.50  2472.70
  3  -56.000  2768.80  2471.80
  3  -54.000  2800.30  2473.60
  3  -52.000  2837.20  2469.30
  3  -50.000  2864.60  2471.90
  3  -48.000  2897.70  2470.10
  3  -46.000  2926.80  2468.60
  3  -44.000  2947.80  2468.50
  3  -42.000  2973.90  2468.90
  3  -40.000  3002.10  2467.10
  3  -38.000  3029.10  2465.90
  3  -36.000  3052.20  2467.40
  3  -34.000  3073.80  2466.60
  3  -32.000  3103.80  2463.70
  3  -30.000  3117.90  2467.20
  3  -28.000  3138.80  2466.20
  3  -26.000  3152.60  2464.80
  3  -24.000  3171.80  2463.40
  3  -22.000  3180.70  2465.40
  3  -20.000  3196.70  2465.30
  3  -18.000  3208.30  2465.30
  3  -16.000  3219.40  2465.70
  3  -14.000  3230.90  2465.30
  3  -12.000  3232.60  2462.30
  3  -10.000  3234.40  2462.10
  3   -8.000  3232.30  2463.30
  3   -6.000  3234.40  2462.10
  3   -4.000  3233.50  2462.90
  3   -2.000  3229.80  2461.50
  3    0.000  3221.70  2461.70
  3    2.000  3214.10  2459.90
  3    4.000  3204.20  2459.70
  3    6.000  3189.80  2458.60
  3    8.000  3175.80  2460.60
  3   10.000  3156.90  2462.80
  3   12.000  3135.30  2467.80
  3   14.000  3109.30  2477.20
  3   16.000  3075.20  2467.10
  3   18.000  3048.40  2469.90
  3   20.000  3019.80  2462.40
  3   22.000  3003.70  2470.70
  3   24.000  2973.60  2473.90
  3   26.000  2948.60  2476.50
  3   28.000  2921.90  2475.40
  3   30.000  2891.50  2478.30
  3   32.000  2863.80  2479.70
  3   34.000  2833.80  2481.60
  3   36.000  2798.60  2485.70
  3   38.000  2769.20  2484.70
  3   40.000  2735.50  2487.20
  3   42.000  2701.20  2489.70
  3   44.000  2664.60  2492.30
  3   46.000  2625.20  2495.70
  3   48.000  2593.20  2494.90
  3   50.000  2555.30  2496.50
  3   52.000  2512.20  2501.40
  3   54.000  2473.20  2507.80
  4  -60.000  1611.50  2877.81
  4  -58.000  1609.80  2881.91
  4  -56.000  1595.30  2884.91
  4  -54.000  1582.40  2889.61
  4  -52.000  1576.30  2888.81
  4  -50.000  1562.40  2894.41
  4  -48.000  1556.10  2894.61
  4  -46.000  1546.70  2896.31
  4  -44.000  1532.30  2899.11
  4  -42.000  1524.60  2901.71
  4  -40.000  1519.80  2901.71
  4  -38.000  1515.80  2902.81
  4  -36.000  1510.30  2905.81
  4  -34.000  1505.10  2906.91
  4  -32.000  1510.40  2905.91
  4  -30.000  1501.30  2910.91
  4  -28.000  1500.90  2910.41
  4  -26.000  1496.40  2910.91
  4  -24.000  1498.30  2910.21
  4  -22.000  1492.10  2913.31
  4  -20.000  1494.60  2914.11
  4  -18.000  1495.60  2914.81
  4  -16.000  1498.10  2915.71
  4  -14.000  1503.20  2915.71
  4  -12.000  1500.60  2912.81
  4  -10.000  1500.30  2912.91
  4   -8.000  1497.90  2914.71
  4   -6.000  1502.40  2912.71
  4   -4.000  1505.30  2913.51
  4   -2.000  1508.10  2911.51
  4    0.000  1508.50  2910.51
  4    2.000  1512.10  2907.71
  4    4.000  1515.20  2906.71
  4    6.000  1514.80  2904.11
  4    8.000  1517.50  2904.61
  4   10.000  1517.20  2905.41
  4   12.000  1513.70  2909.71
  4   14.000  1506.40  2917.51
  4   16.000  1508.80  2902.91
  4   18.000  1508.90  2904.11
  4   20.000  1507.70  2895.41
  4   22.000  1522.50  2900.91
  4   24.000  1524.90  2901.81
  4   26.000  1533.70  2901.11
  4   28.000  1543.90  2897.81
  4   30.000  1551.60  2897.71
  4   32.000  1563.10  2896.11
  4   34.000  1573.70  2894.91
  4   36.000  1581.80  2895.81
  4   38.000  1597.20  2891.31
  4   40.000  1608.90  2890.31
  4   42.000  1621.10  2890.11
  4   44.000  1633.60  2889.11
  4   46.000  1643.90  2888.81
  4   48.000  1663.60  2883.31
  4   50.000  1677.90  2881.21
  4   52.000  1687.80  2881.91
  4   54.000  1704.10  2884.41
